#         Lambda    Transmission
          30810.5996            0.000490
          30828.9004            0.000586
          30847.3008            0.000453
          30865.5996            0.000458
          30884.0000            0.000439
          30902.4004            0.000531
          30920.8008            0.000641
          30939.3008            0.000442
          30957.8008            0.000535
          30976.1992            0.000655
          30994.8008            0.000525
          31013.3008            0.000631
          31031.9004            0.000618
          31050.4004            0.000496
          31069.0000            0.000700
          31087.6992            0.000895
          31106.3008            0.000873
          31125.0000            0.001045
          31143.6992            0.001294
          31162.4004            0.001390
          31181.0996            0.001683
          31199.9004            0.002132
          31218.6992            0.002413
          31237.5000            0.002782
          31256.3008            0.003343
          31275.1992            0.003846
          31294.0000            0.004596
          31312.9004            0.005760
          31331.9004            0.006889
          31350.8008            0.008313
          31369.8008            0.010170
          31388.8008            0.012180
          31407.8008            0.014820
          31426.8008            0.018160
          31445.9004            0.021810
          31464.9004            0.026460
          31484.0996            0.031970
          31503.1992            0.038570
          31522.3008            0.046500
          31541.5000            0.055220
          31560.6992            0.065330
          31579.9004            0.077400
          31599.1992            0.091470
          31618.4004            0.106100
          31637.6992            0.122000
          31657.0000            0.140600
          31676.4004            0.158900
          31695.6992            0.178800
          31715.0996            0.200200
          31734.5000            0.220500
          31754.0000            0.241200
          31773.4004            0.261800
          31792.9004            0.282200
          31812.4004            0.298600
          31831.9004            0.314000
          31851.5000            0.330400
          31871.0996            0.343100
          31890.6992            0.352900
          31910.3008            0.360600
          31929.9004            0.368500
          31949.5996            0.372300
          31969.3008            0.373700
          31989.0000            0.375000
          32008.8008            0.374400
          32028.5996            0.371800
          32048.4004            0.370300
          32068.1992            0.368600
          32088.0000            0.365300
          32107.9004            0.361900
          32127.8008            0.358000
          32147.6992            0.354100
          32167.5996            0.351300
          32187.5996            0.349500
          32207.5996            0.348400
          32227.5996            0.345200
          32247.6992            0.343700
          32267.6992            0.344600
          32287.8008            0.343600
          32307.9004            0.343600
          32328.0996            0.344300
          32348.1992            0.344800
          32368.4004            0.347400
          32388.6992            0.349600
          32408.9004            0.351200
          32429.1992            0.354100
          32449.5000            0.357800
          32469.8008            0.362300
          32490.0996            0.366100
          32510.5000            0.369800
          32530.9004            0.374800
          32551.3008            0.379500
          32571.8008            0.384100
          32592.1992            0.389500
          32612.6992            0.393600
          32633.1992            0.397400
          32653.8008            0.400700
          32674.4004            0.403400
          32695.0000            0.406500
          32715.5996            0.410400
          32736.3008            0.412500
          32756.9004            0.413700
          32777.6016            0.415800
          32798.3984            0.415800
          32819.1016            0.416300
          32839.8984            0.416500
          32860.6992            0.415300
          32881.6016            0.414500
          32902.3984            0.414300
          32923.3008            0.414500
          32944.1992            0.413400
          32965.1992            0.412500
          32986.1992            0.411700
          33007.1016            0.409100
          33028.1992            0.408600
          33049.1992            0.409100
          33070.3008            0.406900
          33091.3984            0.406000
          33112.5000            0.405600
          33133.6992            0.405000
          33154.8984            0.405500
          33176.1016            0.404400
          33197.3008            0.402400
          33218.6016            0.402700
          33239.8984            0.403600
          33261.1992            0.404200
          33282.6016            0.404700
          33303.8984            0.404300
          33325.3008            0.404700
          33346.8008            0.406600
          33368.1992            0.406800
          33389.6992            0.406600
          33411.1992            0.407000
          33432.8008            0.406700
          33454.3008            0.406500
          33475.8984            0.406700
          33497.6016            0.407200
          33519.1992            0.407000
          33540.8984            0.406600
          33562.6016            0.406300
          33584.3008            0.405100
          33606.1016            0.405100
          33627.8984            0.404900
          33649.6992            0.403900
          33671.6016            0.404800
          33693.5000            0.404100
          33715.3984            0.401600
          33737.3008            0.403300
          33759.3008            0.405600
          33781.3008            0.405600
          33803.3008            0.406300
          33825.3008            0.407100
          33847.3984            0.408000
          33869.5000            0.410900
          33891.6992            0.413500
          33913.8008            0.416000
          33936.0000            0.418700
          33958.1992            0.420800
          33980.5000            0.424500
          34002.8008            0.427300
          34025.1016            0.429100
          34047.3984            0.432100
          34069.8008            0.433300
          34092.1992            0.433500
          34114.6016            0.435300
          34137.1016            0.436700
          34159.6016            0.435400
          34182.1016            0.434400
          34204.6016            0.435600
          34227.1992            0.435100
          34249.8008            0.434300
          34272.5000            0.434000
          34295.1016            0.430300
          34317.8008            0.426500
          34340.6016            0.425400
          34363.3008            0.424300
          34386.1016            0.422100
          34408.8984            0.420200
          34431.8008            0.417900
          34454.6016            0.416300
          34477.5000            0.415700
          34500.5000            0.414300
          34523.5000            0.413900
          34546.5000            0.414000
          34569.5000            0.413100
          34592.6016            0.413400
          34615.6016            0.414500
          34638.8008            0.415800
          34661.8984            0.417600
          34685.1016            0.418600
          34708.3008            0.419400
          34731.6016            0.421800
          34754.8008            0.424800
          34778.1992            0.427100
          34801.5000            0.430500
          34824.8984            0.434300
          34848.3008            0.436900
          34871.6992            0.440200
          34895.1992            0.443400
          34918.6992            0.445100
          34942.1992            0.447700
          34965.8008            0.450600
          34989.3984            0.452900
          35013.0000            0.455700
          35036.6016            0.457200
          35060.3008            0.456400
          35084.1016            0.456400
          35107.8008            0.458300
          35131.6016            0.459900
          35155.3984            0.460500
          35179.3008            0.461400
          35203.1016            0.461500
          35227.1016            0.461500
          35251.0000            0.461600
          35275.0000            0.461500
          35299.0000            0.462100
          35323.0000            0.462900
          35347.1016            0.462000
          35371.1992            0.459600
          35395.3984            0.458000
          35419.6016            0.458200
          35443.8008            0.457100
          35468.0000            0.455500
          35492.3008            0.455500
          35516.6016            0.454700
          35540.8984            0.453700
          35565.3008            0.452800
          35589.6992            0.451800
          35614.1992            0.452100
          35638.6016            0.452600
          35663.1992            0.452600
          35687.6992            0.451500
          35712.3008            0.450500
          35736.8984            0.450300
          35761.5000            0.450800
          35786.1992            0.452200
          35810.8984            0.452800
          35835.6992            0.452800
          35860.5000            0.454400
          35885.3008            0.456200
          35910.1016            0.457400
          35935.0000            0.458600
          35959.8984            0.459500
          35984.8984            0.460200
          36009.8984            0.460200
          36034.8984            0.459600
          36060.0000            0.459500
          36085.1016            0.458800
          36110.1992            0.459100
          36135.3984            0.459700
          36160.6016            0.458400
          36185.8008            0.457600
          36211.1016            0.456800
          36236.3984            0.455800
          36261.6992            0.455300
          36287.1016            0.453600
          36312.5000            0.450900
          36337.8984            0.448700
          36363.3984            0.446900
          36388.8984            0.445600
          36414.5000            0.444800
          36440.1016            0.442500
          36465.6992            0.440600
          36491.3984            0.440100
          36517.1016            0.438100
          36542.8008            0.436900
          36568.6016            0.437600
          36594.3984            0.436400
          36620.1992            0.435200
          36646.1016            0.435500
          36672.0000            0.435700
          36698.0000            0.436700
          36724.0000            0.438200
          36750.0000            0.438900
          36776.1016            0.439000
          36802.1992            0.440500
          36828.3008            0.444100
          36854.5000            0.446000
          36880.6992            0.446800
          36906.8984            0.449500
          36933.1992            0.452500
          36959.5000            0.455100
          36985.8984            0.457200
          37012.3008            0.459000
          37038.6992            0.460200
          37065.1992            0.462300
          37091.6992            0.465800
          37118.3008            0.468800
          37144.8984            0.470200
          37171.5000            0.470500
          37198.1992            0.470500
          37224.8984            0.471000
          37251.6016            0.472100
          37278.3984            0.473200
          37305.1992            0.473400
          37332.1016            0.472700
          37359.0000            0.473000
          37385.8984            0.472800
          37412.8984            0.472800
          37439.8984            0.473200
          37466.8984            0.472300
          37494.0000            0.471000
          37521.1992            0.469700
          37548.3008            0.469400
          37575.5000            0.469700
          37602.8008            0.467500
          37630.1016            0.464700
          37657.3984            0.463700
          37684.8008            0.463500
          37712.1992            0.462200
          37739.6016            0.460400
          37767.1016            0.460100
          37794.6016            0.459600
          37822.1992            0.458400
          37849.8008            0.456700
          37877.5000            0.456800
          37905.1016            0.457500
          37932.8984            0.456800
          37960.6016            0.457100
          37988.3984            0.457100
          38016.3008            0.455600
          38044.1992            0.456400
          38072.1016            0.456900
          38100.1016            0.454100
          38128.1016            0.453000
          38156.1992            0.452900
          38184.3008            0.451100
          38212.3984            0.449500
          38240.6016            0.447000
          38268.8008            0.444300
          38297.1016            0.443000
          38325.3984            0.441300
          38353.6992            0.438500
          38382.1016            0.437400
          38410.5000            0.435200
          38439.0000            0.431700
          38467.5000            0.430200
          38496.1016            0.429400
          38524.6992            0.428000
          38553.3008            0.428000
          38582.0000            0.428000
          38610.6992            0.428200
          38639.5000            0.430100
          38668.3008            0.433000
          38697.1992            0.436400
          38726.1016            0.439600
          38755.0000            0.442300
          38784.0000            0.444500
          38813.0000            0.446100
          38842.1016            0.447100
          38871.1992            0.448300
          38900.3984            0.447300
          38929.6016            0.443700
          38958.8984            0.434700
          38988.1016            0.421100
          39017.5000            0.405000
          39046.8984            0.383500
          39076.3008            0.355900
          39105.8008            0.328600
          39135.3008            0.293700
          39164.8008            0.256300
          39194.3984            0.221500
          39224.1016            0.186900
          39253.8008            0.152200
          39283.5000            0.123700
          39313.3008            0.098900
          39343.1016            0.077500
          39373.0000            0.058690
          39402.8984            0.044850
          39432.8984            0.033730
          39462.8984            0.025150
          39492.8984            0.018770
          39523.0000            0.013760
          39553.1992            0.009610
          39583.3984            0.006888
          39613.6016            0.004779
          39643.8984            0.002983
          39674.1992            0.002031
          39704.6016            0.001633
          39735.0000            0.001354
          39765.5000            0.001214
          39796.0000            0.001186
          39826.6016            0.001077
          39857.1992            0.001128
          39887.8984            0.001287
          39918.6016            0.001269
          39949.3008            0.001177
          39980.1016            0.001125
          40011.0000            0.001074
          40041.8984            0.000936
          40072.8008            0.000751
          40103.8008            0.000590
