#         Lambda    Transmission
        1000851.0000            0.000447
        1002105.0000            0.000474
        1003363.0000            0.000367
        1004623.0000            0.000407
        1005887.0000            0.000472
        1007154.0000            0.000494
        1008424.0000            0.000539
        1009697.0000            0.000589
        1010974.0000            0.000553
        1012253.0000            0.000548
        1013536.0000            0.000680
        1014822.0000            0.000700
        1016112.0000            0.000596
        1017405.0000            0.000557
        1018701.0000            0.000641
        1020000.0000            0.000724
        1021303.0000            0.000677
        1022609.0000            0.000715
        1023918.0000            0.000766
        1025231.0000            0.000665
        1026547.0000            0.000725
        1027866.0000            0.000715
        1029189.0000            0.000719
        1030516.0000            0.000799
        1031845.0000            0.000749
        1033178.0000            0.000752
        1034515.0000            0.000789
        1035855.0000            0.000822
        1037199.0000            0.000846
        1038546.0000            0.000819
        1039896.0000            0.000786
        1041250.0000            0.000797
        1042608.0000            0.000900
        1043969.0000            0.000966
        1045334.0000            0.000952
        1046702.0000            0.000808
        1048074.0000            0.000738
        1049449.0000            0.000819
        1050828.0000            0.000927
        1052211.0000            0.000932
        1053597.0000            0.000831
        1054987.0000            0.000792
        1056381.0000            0.000796
        1057778.0000            0.000819
        1059179.0000            0.000870
        1060584.0000            0.000904
        1061992.0000            0.000924
        1063404.0000            0.000889
        1064820.0000            0.000901
        1066240.0000            0.000943
        1067664.0000            0.000881
        1069091.0000            0.000796
        1070522.0000            0.000866
        1071957.0000            0.000943
        1073396.0000            0.000932
        1074839.0000            0.001009
        1076286.0000            0.000936
        1077736.0000            0.000803
        1079190.0000            0.000997
        1080649.0000            0.001114
        1082111.0000            0.001061
        1083577.0000            0.001021
        1085048.0000            0.000981
        1086522.0000            0.000917
        1088000.0000            0.000933
        1089482.0000            0.000937
        1090969.0000            0.000876
        1092459.0000            0.000864
        1093954.0000            0.000883
        1095452.0000            0.001011
        1096955.0000            0.001149
        1098462.0000            0.001216
        1099973.0000            0.001242
        1101488.0000            0.001255
        1103007.0000            0.001211
        1104531.0000            0.001216
        1106058.0000            0.001288
        1107590.0000            0.001282
        1109126.0000            0.001384
        1110667.0000            0.001455
        1112212.0000            0.001513
        1113761.0000            0.001442
        1115314.0000            0.001455
        1116872.0000            0.001539
        1118434.0000            0.001477
        1120000.0000            0.001562
        1121571.0000            0.001587
        1123146.0000            0.001518
        1124726.0000            0.001472
        1126310.0000            0.001510
        1127899.0000            0.001489
        1129492.0000            0.001518
        1131089.0000            0.001668
        1132691.0000            0.001809
        1134298.0000            0.001797
        1135909.0000            0.001851
        1137525.0000            0.001818
        1139145.0000            0.002091
        1140771.0000            0.002203
        1142400.0000            0.002179
        1144035.0000            0.002222
        1145674.0000            0.002193
        1147317.0000            0.002368
        1148966.0000            0.002635
        1150619.0000            0.002708
        1152277.0000            0.002766
        1153940.0000            0.003203
        1155607.0000            0.003520
        1157279.0000            0.003654
        1158957.0000            0.003983
        1160639.0000            0.004197
        1162326.0000            0.004252
        1164018.0000            0.004276
        1165714.0000            0.004526
        1167416.0000            0.004801
        1169123.0000            0.005002
        1170835.0000            0.005536
        1172552.0000            0.005423
        1174273.0000            0.005623
        1176000.0000            0.005942
        1177732.0000            0.006242
        1179469.0000            0.006348
        1181211.0000            0.006335
        1182959.0000            0.006441
        1184711.0000            0.006615
        1186469.0000            0.007240
        1188232.0000            0.007551
        1190000.0000            0.008008
        1191774.0000            0.008284
        1193552.0000            0.008640
        1195337.0000            0.008983
        1197126.0000            0.009191
        1198921.0000            0.009407
        1200721.0000            0.009608
        1202527.0000            0.009991
        1204338.0000            0.010152
        1206154.0000            0.010587
        1207976.0000            0.011319
        1209804.0000            0.011818
        1211637.0000            0.012091
        1213475.0000            0.012364
        1215319.0000            0.012936
        1217169.0000            0.013422
        1219025.0000            0.014121
        1220886.0000            0.014813
        1222752.0000            0.015229
        1224625.0000            0.016504
        1226503.0000            0.017405
        1228387.0000            0.017946
        1230277.0000            0.018605
        1232173.0000            0.019464
        1234074.0000            0.020663
        1235982.0000            0.021828
        1237895.0000            0.022674
        1239814.0000            0.023727
        1241739.0000            0.025979
        1243670.0000            0.027942
        1245608.0000            0.029283
        1247551.0000            0.030681
        1249500.0000            0.032541
        1251456.0000            0.034293
        1253417.0000            0.036261
        1255385.0000            0.038157
        1257359.0000            0.040349
        1259339.0000            0.043315
        1261325.0000            0.046326
        1263318.0000            0.049115
        1265317.0000            0.051696
        1267322.0000            0.054633
        1269334.0000            0.057837
        1271352.0000            0.060863
        1273376.0000            0.063607
        1275407.0000            0.066960
        1277444.0000            0.071232
        1279488.0000            0.076605
        1281539.0000            0.080961
        1283596.0000            0.085566
        1285659.0000            0.089646
        1287730.0000            0.094342
        1289807.0000            0.099703
        1291890.0000            0.104491
        1293981.0000            0.109402
        1296078.0000            0.114945
        1298182.0000            0.120442
        1300293.0000            0.127514
        1302411.0000            0.134596
        1304535.0000            0.138864
        1306667.0000            0.146123
        1308805.0000            0.150331
        1310951.0000            0.157503
        1313104.0000            0.162007
        1315263.0000            0.170009
        1317430.0000            0.174370
        1319604.0000            0.182098
        1321785.0000            0.187804
        1323974.0000            0.195749
        1326169.0000            0.200513
        1328372.0000            0.208706
        1330583.0000            0.213323
        1332800.0000            0.222323
        1335025.0000            0.226949
        1337258.0000            0.231259
        1339498.0000            0.239267
        1341745.0000            0.241975
        1344000.0000            0.249969
        1346263.0000            0.259455
        1348533.0000            0.268523
        1350811.0000            0.277311
        1353097.0000            0.285225
        1355390.0000            0.293649
        1357691.0000            0.302112
        1360000.0000            0.310823
        1362317.0000            0.318801
        1364642.0000            0.322865
        1366975.0000            0.334176
        1369315.0000            0.348680
        1371664.0000            0.356199
        1374021.0000            0.370831
        1376386.0000            0.385731
        1378759.0000            0.400423
        1381140.0000            0.414583
        1383530.0000            0.429878
        1385927.0000            0.445000
        1388334.0000            0.457952
        1390748.0000            0.465973
        1393171.0000            0.480237
        1395602.0000            0.495482
        1398042.0000            0.509854
        1400491.0000            0.532226
        1402948.0000            0.547751
        1405413.0000            0.562369
        1407888.0000            0.584999
        1410371.0000            0.608022
        1412862.0000            0.629290
        1415363.0000            0.645116
        1417873.0000            0.658410
        1420391.0000            0.671591
        1422918.0000            0.675774
        1425455.0000            0.688479
        1428000.0000            0.700292
        1430555.0000            0.702498
        1433119.0000            0.715888
        1435691.0000            0.728260
        1438274.0000            0.740454
        1440865.0000            0.741969
        1443466.0000            0.754591
        1446076.0000            0.757151
        1448696.0000            0.768715
        1451325.0000            0.770594
        1453964.0000            0.784353
        1456612.0000            0.786992
        1459270.0000            0.798593
        1461938.0000            0.804320
        1464616.0000            0.812317
        1467303.0000            0.813238
        1470000.0000            0.823684
        1472707.0000            0.834649
        1475425.0000            0.847635
        1478152.0000            0.859012
        1480889.0000            0.868908
        1483637.0000            0.879965
        1486394.0000            0.891054
        1489162.0000            0.898551
        1491941.0000            0.900832
        1494729.0000            0.912081
        1497528.0000            0.923489
        1500338.0000            0.933271
        1503158.0000            0.942213
        1505989.0000            0.951861
        1508830.0000            0.961771
        1511683.0000            0.972094
        1514546.0000            0.981395
        1517420.0000            0.994476
        1520304.0000            0.999749
        1523200.0000            0.999151
        1526107.0000            0.997548
        1529025.0000            0.995700
        1531954.0000            0.995062
        1534895.0000            0.993676
        1537846.0000            1.000000
        1540809.0000            0.998353
        1543784.0000            0.997502
        1546770.0000            0.995063
        1549768.0000            0.993275
        1552777.0000            0.992945
        1555798.0000            0.980701
        1558831.0000            0.977739
        1561875.0000            0.975756
        1564932.0000            0.965544
        1568000.0000            0.963634
        1571081.0000            0.960770
        1574173.0000            0.954258
        1577278.0000            0.957757
        1580396.0000            0.955337
        1583525.0000            0.952607
        1586667.0000            0.950778
        1589821.0000            0.959710
        1592988.0000            0.957048
        1596168.0000            0.954059
        1599360.0000            0.950879
        1602565.0000            0.949385
        1605783.0000            0.947378
        1609014.0000            0.946668
        1612258.0000            0.946953
        1615515.0000            0.947891
        1618786.0000            0.955765
        1622069.0000            0.953500
        1625366.0000            0.954159
        1628676.0000            0.956026
        1632000.0000            0.956026
        1635338.0000            0.964962
        1638689.0000            0.965461
        1642054.0000            0.965031
        1645432.0000            0.963797
        1648825.0000            0.953418
        1652232.0000            0.951826
        1655652.0000            0.949067
        1659087.0000            0.944964
        1662537.0000            0.931234
        1666000.0000            0.926587
        1669478.0000            0.920868
        1672971.0000            0.913580
        1676478.0000            0.898548
        1680000.0000            0.880514
        1683537.0000            0.861504
        1687089.0000            0.852693
        1690656.0000            0.833905
        1694238.0000            0.820430
        1697835.0000            0.797571
        1701447.0000            0.784459
        1705075.0000            0.759877
        1708718.0000            0.740617
        1712377.0000            0.711354
        1716052.0000            0.684708
        1719742.0000            0.657276
        1723449.0000            0.629894
        1727171.0000            0.610668
        1730909.0000            0.583345
        1734664.0000            0.555174
        1738435.0000            0.527646
        1742223.0000            0.496900
        1746026.0000            0.471499
        1749847.0000            0.445906
        1753684.0000            0.419362
        1757539.0000            0.393300
        1761410.0000            0.368825
        1765298.0000            0.344754
        1769204.0000            0.325955
        1773127.0000            0.303600
        1777067.0000            0.282585
        1781025.0000            0.265238
        1785000.0000            0.250196
        1788994.0000            0.234194
        1793005.0000            0.219211
        1797034.0000            0.203229
        1801081.0000            0.189903
        1805147.0000            0.177366
        1809231.0000            0.166020
        1813334.0000            0.153160
        1817455.0000            0.143091
        1821595.0000            0.133721
        1825754.0000            0.125481
        1829932.0000            0.116889
        1834129.0000            0.109056
        1838345.0000            0.102276
        1842581.0000            0.095799
        1846836.0000            0.088747
        1851111.0000            0.083556
        1855406.0000            0.078206
        1859721.0000            0.072986
        1864056.0000            0.068567
        1868412.0000            0.064252
        1872787.0000            0.059304
        1877183.0000            0.054956
        1881600.0000            0.051705
        1886038.0000            0.047743
        1890497.0000            0.044662
        1894977.0000            0.041159
        1899478.0000            0.038585
        1904000.0000            0.035677
        1908544.0000            0.033044
        1913110.0000            0.030634
        1917698.0000            0.028746
        1922308.0000            0.026742
        1926940.0000            0.024630
        1931595.0000            0.022829
        1936271.0000            0.020896
        1940971.0000            0.019406
        1945694.0000            0.018199
        1950439.0000            0.016901
        1955208.0000            0.016001
        1960000.0000            0.014935
        1964816.0000            0.013881
        1969655.0000            0.013061
        1974519.0000            0.012065
        1979406.0000            0.011210
        1984318.0000            0.010450
        1989254.0000            0.009667
        1994215.0000            0.009083
        1999200.0000            0.008501
